Temp (K)	alpha (K^-1) 
4.0000	-2.3418e-05
4.2963	-2.2904e-05
4.5926	-2.2390e-05
4.8889	-2.1877e-05
5.1852	-2.1365e-05
5.4815	-2.0853e-05
5.7778	-2.0341e-05
6.0741	-1.9831e-05
6.3704	-1.9320e-05
6.6667	-1.8810e-05
6.9630	-1.8301e-05
7.2593	-1.7792e-05
7.5556	-1.7284e-05
7.8519	-1.6776e-05
8.1481	-1.6269e-05
8.4444	-1.5762e-05
8.7407	-1.5256e-05
9.0370	-1.4751e-05
9.3333	-1.4246e-05
9.6296	-1.3741e-05
9.9259	-1.3237e-05
10.2222	-1.2734e-05
10.5185	-1.2231e-05
10.8148	-1.1728e-05
11.1111	-1.1226e-05
11.4074	-1.0725e-05
11.7037	-1.0224e-05
12.0000	-9.7239e-06
12.2963	-9.2241e-06
12.5926	-8.7249e-06
12.8889	-8.2262e-06
13.1852	-7.7280e-06
13.4815	-7.2304e-06
13.7778	-6.7333e-06
14.0741	-6.2367e-06
14.3704	-5.7406e-06
14.6667	-5.2451e-06
14.9630	-4.7501e-06
15.2593	-4.2556e-06
15.5556	-3.7617e-06
15.8519	-3.2683e-06
16.1481	-2.7754e-06
16.4444	-2.2831e-06
16.7407	-1.7913e-06
17.0370	-1.3000e-06
17.3333	-8.0926e-07
17.6296	-3.1904e-07
17.9259	1.7065e-07
18.2222	6.5981e-07
18.5185	1.1484e-06
18.8148	1.6365e-06
19.1111	2.1241e-06
19.4074	2.6112e-06
19.7037	3.0977e-06
20.0000	3.5836e-06
20.2963	4.0691e-06
20.5926	4.5540e-06
20.8889	5.0384e-06
21.1852	5.5223e-06
21.4815	6.0056e-06
21.7778	6.4884e-06
22.0741	6.9707e-06
22.3704	7.4524e-06
22.6667	7.9336e-06
22.9630	8.4143e-06
23.2593	8.8944e-06
23.5556	9.3740e-06
23.8519	9.8531e-06
24.1481	1.0332e-05
24.4444	1.0810e-05
24.7407	1.1287e-05
25.0370	1.1764e-05
25.3333	1.2241e-05
25.6296	1.2717e-05
25.9259	1.3192e-05
26.2222	1.3667e-05
26.5185	1.4141e-05
26.8148	1.4615e-05
27.1111	1.5088e-05
27.4074	1.5561e-05
27.7037	1.6033e-05
28.0000	1.6505e-05
28.2963	1.6976e-05
28.5926	1.7446e-05
28.8889	1.7916e-05
29.1852	1.8386e-05
29.4815	1.8855e-05
29.7778	1.9324e-05
30.0741	1.9791e-05
30.3704	2.0259e-05
30.6667	2.0726e-05
30.9630	2.1192e-05
31.2593	2.1658e-05
31.5556	2.2123e-05
31.8519	2.2588e-05
32.1481	2.3052e-05
32.4444	2.3516e-05
32.7407	2.3979e-05
33.0370	2.4442e-05
33.3333	2.4904e-05
33.6296	2.5366e-05
33.9259	2.5827e-05
34.2222	2.6287e-05
34.5185	2.6747e-05
34.8148	2.7207e-05
35.1111	2.7666e-05
35.4074	2.8124e-05
35.7037	2.8582e-05
36.0000	2.9039e-05
36.2963	2.9496e-05
36.5926	2.9952e-05
36.8889	3.0408e-05
37.1852	3.0863e-05
37.4815	3.1318e-05
37.7778	3.1772e-05
38.0741	3.2226e-05
38.3704	3.2679e-05
38.6667	3.3132e-05
38.9630	3.3584e-05
39.2593	3.4035e-05
39.5556	3.4486e-05
39.8519	3.4937e-05
40.1481	3.5386e-05
40.4444	3.5836e-05
40.7407	3.6285e-05
41.0370	3.6733e-05
41.3333	3.7181e-05
41.6296	3.7628e-05
41.9259	3.8075e-05
42.2222	3.8521e-05
42.5185	3.8967e-05
42.8148	3.9412e-05
43.1111	3.9857e-05
43.4074	4.0301e-05
43.7037	4.0744e-05
44.0000	4.1187e-05
44.2963	4.1630e-05
44.5926	4.2072e-05
44.8889	4.2513e-05
45.1852	4.2954e-05
45.4815	4.3394e-05
45.7778	4.3834e-05
46.0741	4.4274e-05
46.3704	4.4712e-05
46.6667	4.5151e-05
46.9630	4.5588e-05
47.2593	4.6026e-05
47.5556	4.6462e-05
47.8519	4.6898e-05
48.1481	4.7334e-05
48.4444	4.7769e-05
48.7407	4.8204e-05
49.0370	4.8638e-05
49.3333	4.9071e-05
49.6296	4.9504e-05
49.9259	4.9937e-05
50.2222	5.0369e-05
50.5185	5.0800e-05
50.8148	5.1231e-05
51.1111	5.1661e-05
51.4074	5.2091e-05
51.7037	5.2520e-05
52.0000	5.2949e-05
52.2963	5.3377e-05
52.5926	5.3805e-05
52.8889	5.4232e-05
53.1852	5.4658e-05
53.4815	5.5084e-05
53.7778	5.5510e-05
54.0741	5.5935e-05
54.3704	5.6359e-05
54.6667	5.6783e-05
54.9630	5.7207e-05
55.2593	5.7630e-05
55.5556	5.8052e-05
55.8519	5.8474e-05
56.1481	5.8895e-05
56.4444	5.9316e-05
56.7407	5.9736e-05
57.0370	6.0156e-05
57.3333	6.0575e-05
57.6296	6.0994e-05
57.9259	6.1412e-05
58.2222	6.1829e-05
58.5185	6.2247e-05
58.8148	6.2663e-05
59.1111	6.3079e-05
59.4074	6.3494e-05
59.7037	6.3909e-05
60.0000	6.4324e-05
60.2963	6.4738e-05
60.5926	6.5151e-05
60.8889	6.5564e-05
61.1852	6.5976e-05
61.4815	6.6388e-05
61.7778	6.6799e-05
62.0741	6.7210e-05
62.3704	6.7620e-05
62.6667	6.8030e-05
62.9630	6.8439e-05
63.2593	6.8847e-05
63.5556	6.9255e-05
63.8519	6.9663e-05
64.1481	7.0070e-05
64.4444	7.0476e-05
64.7407	7.0882e-05
65.0370	7.1288e-05
65.3333	7.1692e-05
65.6296	7.2097e-05
65.9259	7.2501e-05
66.2222	7.2904e-05
66.5185	7.3307e-05
66.8148	7.3709e-05
67.1111	7.4111e-05
67.4074	7.4512e-05
67.7037	7.4912e-05
68.0000	7.5312e-05
68.2963	7.5712e-05
68.5926	7.6111e-05
68.8889	7.6509e-05
69.1852	7.6907e-05
69.4815	7.7305e-05
69.7778	7.7702e-05
70.0741	7.8098e-05
70.3704	7.8494e-05
70.6667	7.8889e-05
70.9630	7.9284e-05
71.2593	7.9678e-05
71.5556	8.0072e-05
71.8519	8.0465e-05
72.1481	8.0858e-05
72.4444	8.1250e-05
72.7407	8.1642e-05
73.0370	8.2033e-05
73.3333	8.2423e-05
73.6296	8.2813e-05
73.9259	8.3203e-05
74.2222	8.3592e-05
74.5185	8.3980e-05
74.8148	8.4368e-05
75.1111	8.4755e-05
75.4074	8.5142e-05
75.7037	8.5529e-05
76.0000	8.5914e-05
76.2963	8.6300e-05
76.5926	8.6684e-05
76.8889	8.7069e-05
77.1852	8.7452e-05
77.4815	8.7835e-05
77.7778	8.8218e-05
78.0741	8.8600e-05
78.3704	8.8982e-05
78.6667	8.9363e-05
78.9630	8.9743e-05
79.2593	9.0123e-05
79.5556	9.0502e-05
79.8519	9.0881e-05
80.1481	9.1260e-05
80.4444	9.1637e-05
80.7407	9.2015e-05
81.0370	9.2391e-05
81.3333	9.2768e-05
81.6296	9.3143e-05
81.9259	9.3519e-05
82.2222	9.3893e-05
82.5185	9.4267e-05
82.8148	9.4641e-05
83.1111	9.5014e-05
83.4074	9.5387e-05
83.7037	9.5759e-05
84.0000	9.6130e-05
84.2963	9.6501e-05
84.5926	9.6871e-05
84.8889	9.7241e-05
85.1852	9.7611e-05
85.4815	9.7979e-05
85.7778	9.8348e-05
86.0741	9.8715e-05
86.3704	9.9083e-05
86.6667	9.9449e-05
86.9630	9.9815e-05
87.2593	1.0018e-04
87.5556	1.0055e-04
87.8519	1.0091e-04
88.1481	1.0127e-04
88.4444	1.0164e-04
88.7407	1.0200e-04
89.0370	1.0236e-04
89.3333	1.0273e-04
89.6296	1.0309e-04
89.9259	1.0345e-04
90.2222	1.0381e-04
90.5185	1.0417e-04
90.8148	1.0453e-04
91.1111	1.0489e-04
91.4074	1.0524e-04
91.7037	1.0560e-04
92.0000	1.0596e-04
92.2963	1.0632e-04
92.5926	1.0667e-04
92.8889	1.0703e-04
93.1852	1.0738e-04
93.4815	1.0774e-04
93.7778	1.0809e-04
94.0741	1.0844e-04
94.3704	1.0880e-04
94.6667	1.0915e-04
94.9630	1.0950e-04
95.2593	1.0985e-04
95.5556	1.1020e-04
95.8519	1.1055e-04
96.1481	1.1090e-04
96.4444	1.1125e-04
96.7407	1.1160e-04
97.0370	1.1195e-04
97.3333	1.1230e-04
97.6296	1.1264e-04
97.9259	1.1299e-04
98.2222	1.1334e-04
98.5185	1.1368e-04
98.8148	1.1403e-04
99.1111	1.1437e-04
99.4074	1.1472e-04
99.7037	1.1506e-04
100.0000	1.1540e-04
100.2963	1.1574e-04
100.5926	1.1609e-04
100.8889	1.1643e-04
101.1852	1.1677e-04
101.4815	1.1711e-04
101.7778	1.1745e-04
102.0741	1.1779e-04
102.3704	1.1813e-04
102.6667	1.1846e-04
102.9630	1.1880e-04
103.2593	1.1914e-04
103.5556	1.1947e-04
103.8519	1.1981e-04
104.1481	1.2015e-04
104.4444	1.2048e-04
104.7407	1.2081e-04
105.0370	1.2115e-04
105.3333	1.2148e-04
105.6296	1.2181e-04
105.9259	1.2215e-04
106.2222	1.2248e-04
106.5185	1.2281e-04
106.8148	1.2314e-04
107.1111	1.2347e-04
107.4074	1.2380e-04
107.7037	1.2413e-04
108.0000	1.2446e-04
108.2963	1.2479e-04
108.5926	1.2511e-04
108.8889	1.2544e-04
109.1852	1.2577e-04
109.4815	1.2609e-04
109.7778	1.2642e-04
110.0741	1.2674e-04
110.3704	1.2707e-04
110.6667	1.2739e-04
110.9630	1.2771e-04
111.2593	1.2804e-04
111.5556	1.2836e-04
111.8519	1.2868e-04
112.1481	1.2900e-04
112.4444	1.2932e-04
112.7407	1.2964e-04
113.0370	1.2996e-04
113.3333	1.3028e-04
113.6296	1.3060e-04
113.9259	1.3092e-04
114.2222	1.3123e-04
114.5185	1.3155e-04
114.8148	1.3187e-04
115.1111	1.3218e-04
115.4074	1.3250e-04
115.7037	1.3281e-04
116.0000	1.3313e-04
116.2963	1.3344e-04
116.5926	1.3375e-04
116.8889	1.3407e-04
117.1852	1.3438e-04
117.4815	1.3469e-04
117.7778	1.3500e-04
118.0741	1.3531e-04
118.3704	1.3562e-04
118.6667	1.3593e-04
118.9630	1.3624e-04
119.2593	1.3655e-04
119.5556	1.3686e-04
119.8519	1.3716e-04
120.1481	1.3747e-04
120.4444	1.3778e-04
120.7407	1.3808e-04
121.0370	1.3839e-04
121.3333	1.3869e-04
121.6296	1.3900e-04
121.9259	1.3930e-04
122.2222	1.3960e-04
122.5185	1.3991e-04
122.8148	1.4021e-04
123.1111	1.4051e-04
123.4074	1.4081e-04
123.7037	1.4111e-04
124.0000	1.4141e-04
124.2963	1.4171e-04
124.5926	1.4201e-04
124.8889	1.4231e-04
125.1852	1.4260e-04
125.4815	1.4290e-04
125.7778	1.4320e-04
126.0741	1.4349e-04
126.3704	1.4379e-04
126.6667	1.4409e-04
126.9630	1.4438e-04
127.2593	1.4467e-04
127.5556	1.4497e-04
127.8519	1.4526e-04
128.1481	1.4555e-04
128.4444	1.4584e-04
128.7407	1.4614e-04
129.0370	1.4643e-04
129.3333	1.4672e-04
129.6296	1.4701e-04
129.9259	1.4730e-04
130.2222	1.4759e-04
130.5185	1.4787e-04
130.8148	1.4816e-04
131.1111	1.4845e-04
131.4074	1.4874e-04
131.7037	1.4902e-04
132.0000	1.4931e-04
132.2963	1.4959e-04
132.5926	1.4988e-04
132.8889	1.5016e-04
133.1852	1.5044e-04
133.4815	1.5073e-04
133.7778	1.5101e-04
134.0741	1.5129e-04
134.3704	1.5157e-04
134.6667	1.5185e-04
134.9630	1.5213e-04
135.2593	1.5241e-04
135.5556	1.5269e-04
135.8519	1.5297e-04
136.1481	1.5325e-04
136.4444	1.5353e-04
136.7407	1.5380e-04
137.0370	1.5408e-04
137.3333	1.5436e-04
137.6296	1.5463e-04
137.9259	1.5491e-04
138.2222	1.5518e-04
138.5185	1.5546e-04
138.8148	1.5573e-04
139.1111	1.5600e-04
139.4074	1.5627e-04
139.7037	1.5655e-04
140.0000	1.5682e-04
140.2963	1.5709e-04
140.5926	1.5736e-04
140.8889	1.5763e-04
141.1852	1.5790e-04
141.4815	1.5817e-04
141.7778	1.5843e-04
142.0741	1.5870e-04
142.3704	1.5897e-04
142.6667	1.5923e-04
142.9630	1.5950e-04
143.2593	1.5977e-04
143.5556	1.6003e-04
143.8519	1.6029e-04
144.1481	1.6056e-04
144.4444	1.6082e-04
144.7407	1.6108e-04
145.0370	1.6135e-04
145.3333	1.6161e-04
145.6296	1.6187e-04
145.9259	1.6213e-04
146.2222	1.6239e-04
146.5185	1.6265e-04
146.8148	1.6291e-04
147.1111	1.6317e-04
147.4074	1.6343e-04
147.7037	1.6368e-04
148.0000	1.6394e-04
148.2963	1.6420e-04
148.5926	1.6445e-04
148.8889	1.6471e-04
149.1852	1.6496e-04
149.4815	1.6522e-04
149.7778	1.6547e-04
150.0741	1.6572e-04
150.3704	1.6598e-04
150.6667	1.6623e-04
150.9630	1.6648e-04
151.2593	1.6673e-04
151.5556	1.6698e-04
151.8519	1.6723e-04
152.1481	1.6748e-04
152.4444	1.6773e-04
152.7407	1.6798e-04
153.0370	1.6823e-04
153.3333	1.6847e-04
153.6296	1.6872e-04
153.9259	1.6897e-04
154.2222	1.6921e-04
154.5185	1.6946e-04
154.8148	1.6970e-04
155.1111	1.6995e-04
155.4074	1.7019e-04
155.7037	1.7043e-04
156.0000	1.7068e-04
156.2963	1.7092e-04
156.5926	1.7116e-04
156.8889	1.7140e-04
157.1852	1.7164e-04
157.4815	1.7188e-04
157.7778	1.7212e-04
158.0741	1.7236e-04
158.3704	1.7260e-04
158.6667	1.7284e-04
158.9630	1.7307e-04
159.2593	1.7331e-04
159.5556	1.7355e-04
159.8519	1.7378e-04
160.1481	1.7402e-04
160.4444	1.7425e-04
160.7407	1.7449e-04
161.0370	1.7472e-04
161.3333	1.7495e-04
161.6296	1.7519e-04
161.9259	1.7542e-04
162.2222	1.7565e-04
162.5185	1.7588e-04
162.8148	1.7611e-04
163.1111	1.7634e-04
163.4074	1.7657e-04
163.7037	1.7680e-04
164.0000	1.7703e-04
164.2963	1.7726e-04
164.5926	1.7748e-04
164.8889	1.7771e-04
165.1852	1.7794e-04
165.4815	1.7816e-04
165.7778	1.7839e-04
166.0741	1.7861e-04
166.3704	1.7884e-04
166.6667	1.7906e-04
166.9630	1.7928e-04
167.2593	1.7950e-04
167.5556	1.7973e-04
167.8519	1.7995e-04
168.1481	1.8017e-04
168.4444	1.8039e-04
168.7407	1.8061e-04
169.0370	1.8083e-04
169.3333	1.8105e-04
169.6296	1.8127e-04
169.9259	1.8148e-04
170.2222	1.8170e-04
170.5185	1.8192e-04
170.8148	1.8213e-04
171.1111	1.8235e-04
171.4074	1.8256e-04
171.7037	1.8278e-04
172.0000	1.8299e-04
172.2963	1.8321e-04
172.5926	1.8342e-04
172.8889	1.8363e-04
173.1852	1.8384e-04
173.4815	1.8405e-04
173.7778	1.8426e-04
174.0741	1.8448e-04
174.3704	1.8468e-04
174.6667	1.8489e-04
174.9630	1.8510e-04
175.2593	1.8531e-04
175.5556	1.8552e-04
175.8519	1.8573e-04
176.1481	1.8593e-04
176.4444	1.8614e-04
176.7407	1.8634e-04
177.0370	1.8655e-04
177.3333	1.8675e-04
177.6296	1.8696e-04
177.9259	1.8716e-04
178.2222	1.8736e-04
178.5185	1.8757e-04
178.8148	1.8777e-04
179.1111	1.8797e-04
179.4074	1.8817e-04
179.7037	1.8837e-04
180.0000	1.8857e-04
180.2963	1.8877e-04
180.5926	1.8897e-04
180.8889	1.8917e-04
181.1852	1.8936e-04
181.4815	1.8956e-04
181.7778	1.8976e-04
182.0741	1.8995e-04
182.3704	1.9015e-04
182.6667	1.9034e-04
182.9630	1.9054e-04
183.2593	1.9073e-04
183.5556	1.9092e-04
183.8519	1.9112e-04
184.1481	1.9131e-04
184.4444	1.9150e-04
184.7407	1.9169e-04
185.0370	1.9188e-04
185.3333	1.9207e-04
185.6296	1.9226e-04
185.9259	1.9245e-04
186.2222	1.9264e-04
186.5185	1.9283e-04
186.8148	1.9302e-04
187.1111	1.9320e-04
187.4074	1.9339e-04
187.7037	1.9358e-04
188.0000	1.9376e-04
188.2963	1.9395e-04
188.5926	1.9413e-04
188.8889	1.9431e-04
189.1852	1.9450e-04
189.4815	1.9468e-04
189.7778	1.9486e-04
190.0741	1.9504e-04
190.3704	1.9522e-04
190.6667	1.9541e-04
190.9630	1.9559e-04
191.2593	1.9576e-04
191.5556	1.9594e-04
191.8519	1.9612e-04
192.1481	1.9630e-04
192.4444	1.9648e-04
192.7407	1.9665e-04
193.0370	1.9683e-04
193.3333	1.9701e-04
193.6296	1.9718e-04
193.9259	1.9736e-04
194.2222	1.9753e-04
194.5185	1.9770e-04
194.8148	1.9788e-04
195.1111	1.9805e-04
195.4074	1.9822e-04
195.7037	1.9839e-04
196.0000	1.9857e-04
196.2963	1.9874e-04
196.5926	1.9891e-04
196.8889	1.9908e-04
197.1852	1.9924e-04
197.4815	1.9941e-04
197.7778	1.9958e-04
198.0741	1.9975e-04
198.3704	1.9991e-04
198.6667	2.0008e-04
198.9630	2.0025e-04
199.2593	2.0041e-04
199.5556	2.0058e-04
199.8519	2.0074e-04
200.1481	2.0090e-04
200.4444	2.0107e-04
200.7407	2.0123e-04
201.0370	2.0139e-04
201.3333	2.0155e-04
201.6296	2.0171e-04
201.9259	2.0188e-04
202.2222	2.0203e-04
202.5185	2.0219e-04
202.8148	2.0235e-04
203.1111	2.0251e-04
203.4074	2.0267e-04
203.7037	2.0283e-04
204.0000	2.0298e-04
204.2963	2.0314e-04
204.5926	2.0330e-04
204.8889	2.0345e-04
205.1852	2.0360e-04
205.4815	2.0376e-04
205.7778	2.0391e-04
206.0741	2.0407e-04
206.3704	2.0422e-04
206.6667	2.0437e-04
206.9630	2.0452e-04
207.2593	2.0467e-04
207.5556	2.0482e-04
207.8519	2.0497e-04
208.1481	2.0512e-04
208.4444	2.0527e-04
208.7407	2.0542e-04
209.0370	2.0557e-04
209.3333	2.0571e-04
209.6296	2.0586e-04
209.9259	2.0601e-04
210.2222	2.0615e-04
210.5185	2.0630e-04
210.8148	2.0644e-04
211.1111	2.0659e-04
211.4074	2.0673e-04
211.7037	2.0687e-04
212.0000	2.0701e-04
212.2963	2.0716e-04
212.5926	2.0730e-04
212.8889	2.0744e-04
213.1852	2.0758e-04
213.4815	2.0772e-04
213.7778	2.0786e-04
214.0741	2.0800e-04
214.3704	2.0814e-04
214.6667	2.0827e-04
214.9630	2.0841e-04
215.2593	2.0855e-04
215.5556	2.0868e-04
215.8519	2.0882e-04
216.1481	2.0895e-04
216.4444	2.0909e-04
216.7407	2.0922e-04
217.0370	2.0936e-04
217.3333	2.0949e-04
217.6296	2.0962e-04
217.9259	2.0975e-04
218.2222	2.0988e-04
218.5185	2.1001e-04
218.8148	2.1014e-04
219.1111	2.1027e-04
219.4074	2.1040e-04
219.7037	2.1053e-04
220.0000	2.1066e-04
220.2963	2.1079e-04
220.5926	2.1091e-04
220.8889	2.1104e-04
221.1852	2.1117e-04
221.4815	2.1129e-04
221.7778	2.1142e-04
222.0741	2.1154e-04
222.3704	2.1167e-04
222.6667	2.1179e-04
222.9630	2.1191e-04
223.2593	2.1203e-04
223.5556	2.1216e-04
223.8519	2.1228e-04
224.1481	2.1240e-04
224.4444	2.1252e-04
224.7407	2.1264e-04
225.0370	2.1276e-04
225.3333	2.1288e-04
225.6296	2.1299e-04
225.9259	2.1311e-04
226.2222	2.1323e-04
226.5185	2.1334e-04
226.8148	2.1346e-04
227.1111	2.1358e-04
227.4074	2.1369e-04
227.7037	2.1380e-04
228.0000	2.1392e-04
228.2963	2.1403e-04
228.5926	2.1414e-04
228.8889	2.1426e-04
229.1852	2.1437e-04
229.4815	2.1448e-04
229.7778	2.1459e-04
230.0741	2.1470e-04
230.3704	2.1481e-04
230.6667	2.1492e-04
230.9630	2.1503e-04
231.2593	2.1514e-04
231.5556	2.1524e-04
231.8519	2.1535e-04
232.1481	2.1546e-04
232.4444	2.1556e-04
232.7407	2.1567e-04
233.0370	2.1577e-04
233.3333	2.1588e-04
233.6296	2.1598e-04
233.9259	2.1608e-04
234.2222	2.1619e-04
234.5185	2.1629e-04
234.8148	2.1639e-04
235.1111	2.1649e-04
235.4074	2.1659e-04
235.7037	2.1669e-04
236.0000	2.1679e-04
236.2963	2.1689e-04
236.5926	2.1699e-04
236.8889	2.1709e-04
237.1852	2.1718e-04
237.4815	2.1728e-04
237.7778	2.1738e-04
238.0741	2.1747e-04
238.3704	2.1757e-04
238.6667	2.1766e-04
238.9630	2.1776e-04
239.2593	2.1785e-04
239.5556	2.1794e-04
239.8519	2.1804e-04
240.1481	2.1813e-04
240.4444	2.1822e-04
240.7407	2.1831e-04
241.0370	2.1840e-04
241.3333	2.1849e-04
241.6296	2.1858e-04
241.9259	2.1867e-04
242.2222	2.1876e-04
242.5185	2.1885e-04
242.8148	2.1893e-04
243.1111	2.1902e-04
243.4074	2.1911e-04
243.7037	2.1919e-04
244.0000	2.1928e-04
244.2963	2.1936e-04
244.5926	2.1944e-04
244.8889	2.1953e-04
245.1852	2.1961e-04
245.4815	2.1969e-04
245.7778	2.1978e-04
246.0741	2.1986e-04
246.3704	2.1994e-04
246.6667	2.2002e-04
246.9630	2.2010e-04
247.2593	2.2018e-04
247.5556	2.2026e-04
247.8519	2.2034e-04
248.1481	2.2041e-04
248.4444	2.2049e-04
248.7407	2.2057e-04
249.0370	2.2064e-04
249.3333	2.2072e-04
249.6296	2.2079e-04
249.9259	2.2087e-04
250.2222	2.2094e-04
250.5185	2.2102e-04
250.8148	2.2109e-04
251.1111	2.2116e-04
251.4074	2.2123e-04
251.7037	2.2130e-04
252.0000	2.2138e-04
252.2963	2.2145e-04
252.5926	2.2152e-04
252.8889	2.2158e-04
253.1852	2.2165e-04
253.4815	2.2172e-04
253.7778	2.2179e-04
254.0741	2.2186e-04
254.3704	2.2192e-04
254.6667	2.2199e-04
254.9630	2.2205e-04
255.2593	2.2212e-04
255.5556	2.2218e-04
255.8519	2.2225e-04
256.1481	2.2231e-04
256.4444	2.2237e-04
256.7407	2.2244e-04
257.0370	2.2250e-04
257.3333	2.2256e-04
257.6296	2.2262e-04
257.9259	2.2268e-04
258.2222	2.2274e-04
258.5185	2.2280e-04
258.8148	2.2286e-04
259.1111	2.2292e-04
259.4074	2.2297e-04
259.7037	2.2303e-04
260.0000	2.2309e-04
260.2963	2.2314e-04
260.5926	2.2320e-04
260.8889	2.2325e-04
261.1852	2.2331e-04
261.4815	2.2336e-04
261.7778	2.2342e-04
262.0741	2.2347e-04
262.3704	2.2352e-04
262.6667	2.2357e-04
262.9630	2.2362e-04
263.2593	2.2367e-04
263.5556	2.2372e-04
263.8519	2.2377e-04
264.1481	2.2382e-04
264.4444	2.2387e-04
264.7407	2.2392e-04
265.0370	2.2397e-04
265.3333	2.2401e-04
265.6296	2.2406e-04
265.9259	2.2411e-04
266.2222	2.2415e-04
266.5185	2.2420e-04
266.8148	2.2424e-04
267.1111	2.2429e-04
267.4074	2.2433e-04
267.7037	2.2437e-04
268.0000	2.2441e-04
268.2963	2.2446e-04
268.5926	2.2450e-04
268.8889	2.2454e-04
269.1852	2.2458e-04
269.4815	2.2462e-04
269.7778	2.2466e-04
270.0741	2.2469e-04
270.3704	2.2473e-04
270.6667	2.2477e-04
270.9630	2.2481e-04
271.2593	2.2484e-04
271.5556	2.2488e-04
271.8519	2.2491e-04
272.1481	2.2495e-04
272.4444	2.2498e-04
272.7407	2.2502e-04
273.0370	2.2505e-04
273.3333	2.2508e-04
273.6296	2.2512e-04
273.9259	2.2515e-04
274.2222	2.2518e-04
274.5185	2.2521e-04
274.8148	2.2524e-04
275.1111	2.2527e-04
275.4074	2.2530e-04
275.7037	2.2533e-04
276.0000	2.2535e-04
276.2963	2.2538e-04
276.5926	2.2541e-04
276.8889	2.2543e-04
277.1852	2.2546e-04
277.4815	2.2549e-04
277.7778	2.2551e-04
278.0741	2.2553e-04
278.3704	2.2556e-04
278.6667	2.2558e-04
278.9630	2.2560e-04
279.2593	2.2563e-04
279.5556	2.2565e-04
279.8519	2.2567e-04
280.1481	2.2569e-04
280.4444	2.2571e-04
280.7407	2.2573e-04
281.0370	2.2575e-04
281.3333	2.2577e-04
281.6296	2.2578e-04
281.9259	2.2580e-04
282.2222	2.2582e-04
282.5185	2.2583e-04
282.8148	2.2585e-04
283.1111	2.2586e-04
283.4074	2.2588e-04
283.7037	2.2589e-04
284.0000	2.2591e-04
284.2963	2.2592e-04
284.5926	2.2593e-04
284.8889	2.2594e-04
285.1852	2.2596e-04
285.4815	2.2597e-04
285.7778	2.2598e-04
286.0741	2.2599e-04
286.3704	2.2600e-04
286.6667	2.2601e-04
286.9630	2.2601e-04
287.2593	2.2602e-04
287.5556	2.2603e-04
287.8519	2.2604e-04
288.1481	2.2604e-04
288.4444	2.2605e-04
288.7407	2.2605e-04
289.0370	2.2606e-04
289.3333	2.2606e-04
289.6296	2.2606e-04
289.9259	2.2607e-04
290.2222	2.2607e-04
290.5185	2.2607e-04
290.8148	2.2607e-04
291.1111	2.2607e-04
291.4074	2.2607e-04
291.7037	2.2607e-04
292.0000	2.2607e-04
292.2963	2.2607e-04
292.5926	2.2607e-04
292.8889	2.2607e-04
293.1852	2.2606e-04
293.4815	2.2606e-04
293.7778	2.2606e-04
294.0741	2.2605e-04
294.3704	2.2605e-04
294.6667	2.2604e-04
294.9630	2.2604e-04
295.2593	2.2603e-04
295.5556	2.2602e-04
295.8519	2.2602e-04
296.1481	2.2601e-04
296.4444	2.2600e-04
296.7407	2.2599e-04
297.0370	2.2598e-04
297.3333	2.2597e-04
297.6296	2.2596e-04
297.9259	2.2595e-04
298.2222	2.2594e-04
298.5185	2.2592e-04
298.8148	2.2591e-04
299.1111	2.2590e-04
299.4074	2.2588e-04
299.7037	2.2587e-04
